# F625W  Wavelength  Transmittance   
3000 0.0 
3500 6.74E-06 
4000 2.24E-06 
4500 6.90E-06 
4580 1.16E-05 
4620 1.19E-05 
4660 1.30E-05 
4700 1.32E-05 
4740 1.96E-05 
4780 1.69E-05 
4820 1.83E-05 
4860 1.71E-05 
4900 1.75E-05 
4940 1.98E-05 
4980 1.26E-05 
5000 1.51E-05 
5020 1.67E-05 
5060 1.66E-05 
5100 1.92E-05 
5140 2.00E-05 
5180 2.00E-05 
5220 1.91E-05 
5260 2.24E-05 
5300 2.23E-05 
5340 2.42E-05 
5380 9.97E-05 
5420 2.66E-03 
5440 8.29E-03 
5450 1.58E-02 
5460 2.73E-02 
5470 4.52E-02 
5480 7.12E-02 
5490 9.88E-02 
5500 1.18E-01 
5510 1.53E-01 
5520 2.10E-01 
5530 2.61E-01 
5540 3.08E-01 
5550 3.47E-01 
5560 3.91E-01 
5570 4.32E-01 
5580 4.72E-01 
5590 4.99E-01 
5600 5.09E-01 
5610 5.38E-01 
5620 5.68E-01 
5630 6.13E-01 
5640 6.38E-01 
5650 6.62E-01 
5660 6.68E-01 
5670 6.87E-01 
5680 7.13E-01 
5690 7.11E-01 
5700 7.01E-01 
5710 6.83E-01 
5720 6.97E-01 
5730 7.26E-01 
5740 7.58E-01 
5750 7.77E-01 
5760 7.71E-01 
5770 7.66E-01 
5780 7.69E-01 
5790 7.80E-01 
5800 8.11E-01 
5810 8.10E-01 
5820 8.07E-01 
5830 8.04E-01 
5840 8.19E-01 
5850 8.38E-01 
5860 8.41E-01 
5870 8.31E-01 
5880 8.20E-01 
5890 8.31E-01 
5900 8.42E-01 
5910 8.42E-01 
5920 8.30E-01 
5930 8.22E-01 
5940 8.10E-01 
5950 8.20E-01 
5960 8.42E-01 
5970 8.57E-01 
5980 8.50E-01 
5990 8.37E-01 
6000 8.14E-01 
6010 8.22E-01 
6020 8.36E-01 
6030 8.65E-01 
6040 8.73E-01 
6050 8.76E-01 
6060 8.75E-01 
6070 8.63E-01 
6080 8.61E-01 
6090 8.65E-01 
6100 8.52E-01 
6110 8.22E-01 
6120 8.19E-01 
6130 8.38E-01 
6140 8.64E-01 
6150 8.93E-01 
6160 8.99E-01 
6170 8.91E-01 
6180 8.65E-01 
6190 8.68E-01 
6200 8.66E-01 
6210 8.84E-01 
6220 8.93E-01 
6230 9.02E-01 
6240 8.96E-01 
6250 8.90E-01 
6260 9.03E-01 
6270 9.07E-01 
6280 9.03E-01 
6290 8.97E-01 
6300 8.62E-01 
6310 8.32E-01 
6320 8.18E-01 
6330 8.33E-01 
6340 8.77E-01 
6350 8.91E-01 
6360 9.15E-01 
6370 9.15E-01 
6380 8.98E-01 
6390 9.08E-01 
6400 9.15E-01 
6410 9.11E-01 
6420 9.10E-01 
6430 8.91E-01 
6440 8.80E-01 
6450 8.81E-01 
6460 8.82E-01 
6470 9.03E-01 
6480 9.16E-01 
6490 9.02E-01 
6500 8.76E-01 
6510 8.40E-01 
6520 8.28E-01 
6530 8.32E-01 
6540 8.41E-01 
6550 8.79E-01 
6560 8.91E-01 
6570 8.92E-01 
6580 8.84E-01 
6590 8.97E-01 
6600 8.90E-01 
6610 9.11E-01 
6620 9.11E-01 
6630 9.07E-01 
6640 9.10E-01 
6650 8.87E-01 
6660 8.89E-01 
6670 8.93E-01 
6680 9.06E-01 
6690 9.10E-01 
6700 8.94E-01 
6710 8.89E-01 
6720 8.69E-01 
6730 8.75E-01 
6740 8.79E-01 
6750 8.89E-01 
6760 9.02E-01 
6770 8.97E-01 
6780 8.88E-01 
6790 8.85E-01 
6800 8.80E-01 
6810 8.93E-01 
6820 8.77E-01 
6830 8.73E-01 
6840 8.63E-01 
6850 8.53E-01 
6860 8.59E-01 
6870 8.56E-01 
6880 8.60E-01 
6890 8.55E-01 
6900 8.44E-01 
6910 8.37E-01 
6920 8.37E-01 
6930 8.48E-01 
6940 8.49E-01 
6950 8.40E-01 
6960 8.23E-01 
6970 7.99E-01 
6980 7.74E-01 
6990 7.37E-01 
7000 6.80E-01 
7010 5.66E-01 
7020 4.15E-01 
7030 2.93E-01 
7040 2.08E-01 
7050 1.53E-01 
7060 1.03E-01 
7070 5.83E-02 
7080 3.04E-02 
7090 1.56E-02 
7100 8.47E-03 
7110 5.17E-03 
7120 3.49E-03 
7140 1.88E-03 
7180 5.81E-04 
7220 1.87E-04 
7260 1.19E-04 
7300 5.38E-05 
7340 2.89E-05 
7380 3.32E-05 
7420 2.95E-05 
7460 1.82E-05 
7500 2.10E-05 
7540 2.08E-05 
7580 1.23E-05 
7620 1.23E-05 
7660 1.74E-05 
7700 1.28E-05 
7740 8.48E-06 
7780 1.19E-05 
7820 1.36E-05 
7860 7.56E-06 
7900 6.31E-06 
7940 7.77E-06 
7980 8.34E-06 
8020 7.25E-06 
8060 8.85E-06 
8100 9.48E-06 
8140 5.53E-06 
8180 3.94E-06 
8220 4.26E-06 
8260 5.17E-06 
8300 4.86E-06 
8340 7.13E-06 
8380 7.95E-06 
8420 3.70E-06 
8460 2.88E-06 
8500 3.47E-06 
8540 5.85E-06 
8580 9.46E-06 
8620 1.09E-05 
8660 2.92E-06 
8700 1.51E-06 
8740 9.89E-07 
8780 9.46E-07 
8850 8.58E-07 
8950 5.17E-07 
9050 6.85E-07 
9150 9.46E-06 
9250 1.61E-06 
9320 9.62E-06 
9350 5.56E-06 
9360 7.36E-06 
9400 2.45E-06 
9450 1.90E-06 
9550 2.44E-06 
9650 8.82E-06 
9750 7.45E-06 
9850 3.75E-06 
9950 4.60E-06 
10050 9.20E-06 
10150 9.46E-06 
10250 6.81E-06 
10350 1.03E-05 
10450 0.0 
